Measurement: #16
Date: 2024-06-12T19:22:41.380672+01:00
MLIC serial number: 26687
Comments: 
Calibration info: [2024-05-24 17:19:39]
Background compensation applied: yes
Uniformity calibration applied: yes
Snout dimension: n/a
Snout distance: n/a
FieldSize: 10 [cm]
SSD: 230 [cm]
Beam delivery mode: PencilBeamScanning
Sampling time: 10000 [ms]
Number of samples: 1
Measurement mode: SingleShot
Measurement time: (n/a)
Build-up thickness: 0 [cm]
Build-up density: 0 [g/cm^3]
Bragg Peak type: Unknown
Channel count (active): 180
Channel numbers (active): 1;2;3;4;5;6;7;8;9;10;11;12;13;14;15;16;17;18;19;20;21;22;23;24;25;26;27;28;29;30;31;32;33;34;35;36;37;38;39;40;41;42;43;44;45;46;47;48;49;50;51;52;53;54;55;56;57;58;59;60;61;62;63;64;65;66;67;68;69;70;71;72;73;74;75;76;77;78;79;80;81;82;83;84;85;86;87;88;89;90;91;92;93;94;95;96;97;98;99;100;101;102;103;104;105;106;107;108;109;110;111;112;113;114;115;116;117;118;119;120;121;122;123;124;125;126;127;128;129;130;131;132;133;134;135;136;137;138;139;140;141;142;143;144;145;146;147;148;149;150;151;152;153;154;155;156;157;158;159;160;161;162;163;164;165;166;167;168;169;170;171;172;173;174;175;176;177;178;179;180
Channel numbers (disabled): 

Curves: 1
Curve depth: [mm]
1.256;3.107;4.958;6.809;8.660;10.511;12.362;14.213;16.064;17.915;19.766;21.617;23.468;25.319;27.170;29.021;30.872;32.723;34.574;36.425;38.276;40.127;41.978;43.829;45.680;47.531;49.382;51.233;53.084;54.935;56.786;58.637;60.488;62.339;64.190;66.041;67.892;69.743;71.594;73.445;75.296;77.147;78.998;80.849;82.700;84.551;86.402;88.253;90.104;91.955;93.806;95.657;97.508;99.359;101.210;103.061;104.912;106.763;108.614;110.465;112.316;114.167;116.018;117.869;119.720;121.571;123.422;125.273;127.124;128.975;130.826;132.677;134.528;136.379;138.230;140.081;141.932;143.783;145.634;147.485;149.336;151.187;153.038;154.889;156.740;158.591;160.442;162.293;164.144;165.995;167.846;169.697;171.548;173.399;175.250;177.101;178.952;180.803;182.654;184.505;186.356;188.207;190.058;191.909;193.760;195.611;197.462;199.313;201.164;203.015;204.866;206.717;208.568;210.419;212.270;214.121;215.972;217.823;219.674;221.525;223.376;225.227;227.078;228.929;230.780;232.631;234.482;236.333;238.184;240.035;241.886;243.737;245.588;247.439;249.290;251.141;252.992;254.843;256.694;258.545;260.396;262.247;264.098;265.949;267.800;269.651;271.502;273.353;275.204;277.055;278.906;280.757;282.608;284.459;286.310;288.161;290.012;291.863;293.714;295.565;297.416;299.267;301.118;302.969;304.820;306.671;308.522;310.373;312.224;314.075;315.926;317.777;319.628;321.479;323.330;325.181;327.032;328.883;330.734;332.585
Curve gains: [counts]
1405.307;1408.521;1405.004;1414.326;1419.634;1431.469;1441.697;1455.544;1455.050;1470.830;1478.386;1483.866;1492.589;1502.762;1510.354;1517.861;1520.356;1531.626;1531.248;1541.861;1544.487;1551.754;1550.831;1569.896;1557.857;1580.208;1582.267;1573.665;1593.522;1598.097;1603.785;1609.207;1609.375;1621.960;1627.226;1625.851;1634.938;1646.903;1641.169;1661.831;1655.254;1667.666;1677.892;1682.966;1685.948;1690.873;1699.057;1696.724;1709.695;1727.567;1734.148;1732.846;1741.938;1763.529;1757.657;1768.546;1774.115;1781.460;1790.419;1814.046;1819.246;1831.177;1837.898;1851.316;1867.043;1864.637;1885.377;1906.840;1909.559;1930.821;1950.332;1971.146;1969.815;2008.496;2012.430;2037.785;2063.975;2082.088;2116.235;2121.656;2170.717;2183.774;2225.115;2247.771;2298.146;2329.193;2374.163;2417.584;2467.189;2520.097;2583.690;2646.434;2733.118;2811.394;2914.660;3032.991;3175.706;3331.489;3571.164;3826.047;4161.408;4650.162;5117.772;5443.988;5185.323;4182.372;2819.197;1476.311;577.233;163.488;30.051;4.943;3.300;1.360;1.128;2.130;1.812;2.035;1.219;0.345;0.784;0.753;1.284;1.261;1.607;0.614;1.114;2.334;0.633;1.335;0.866;0.000;0.620;1.207;0.000;0.472;0.597;0.000;0.000;0.462;1.100;0.468;0.000;0.000;1.212;0.000;0.000;0.291;0.000;0.000;0.723;0.000;0.000;0.000;0.000;0.000;0.447;0.000;0.000;1.073;0.344;0.000;0.000;0.000;0.000;0.000;0.000;0.336;0.000;0.000;0.000;0.000;0.000;0.000;0.189;0.764;0.000;0.000;0.000;0.000

Samples: 1
1277.333;1611.833;1306.167;1504.500;1585.667;1306.667;910.500;2013.500;1017.333;1591.667;1574.833;1457.000;1436.333;1596.667;1700.833;1445.000;1934.333;1221.500;1503.667;1612.000;1558.667;1721.167;1246.833;1772.167;1255.167;2031.167;1634.333;1373.333;1689.500;1413.333;1756.333;1820.167;1347.833;1784.000;1570.500;1598.333;1633.667;1829.167;979.000;2051.500;1847.833;1699.333;2155.000;1557.500;1656.333;1824.500;1669.333;932.333;1746.667;1866.333;1945.167;1508.667;1873.333;2156.500;1689.333;1691.833;1931.167;1722.000;1473.333;1827.000;2108.333;1923.667;1555.000;2062.667;1890.167;1391.333;1946.167;2185.667;1909.167;1674.000;2038.000;1965.500;1615.500;2715.000;2064.167;1998.833;2151.333;2056.333;2219.167;1475.833;2400.167;2165.333;2212.167;2145.667;2296.167;2304.333;2782.000;2592.333;2626.333;2334.167;3164.333;2552.000;2732.167;2809.333;3060.500;3033.833;3333.167;3174.000;4039.500;3936.333;4219.333;5916.167;5024.500;5796.333;4806.333;2167.000;3248.167;1189.833;697.000;144.333;34.167;5.500;3.500;1.500;1.000;2.333;1.500;2.500;1.167;0.333;0.833;0.667;1.167;1.333;1.833;0.500;1.167;2.333;0.667;1.333;0.833;0.000;0.667;1.167;0.000;0.500;0.667;0.000;0.000;0.500;1.167;0.667;0.000;0.000;1.833;0.000;0.000;0.333;0.000;0.000;0.833;0.000;0.000;0.000;0.000;0.000;0.500;0.000;0.000;1.167;0.333;0.000;0.000;0.000;0.000;0.000;0.000;0.500;0.000;0.000;0.000;0.000;0.000;0.000;0.167;0.833;0.000;0.000;0.000;0.000
