Measurement: #12
Date: 2024-06-12T19:16:47.4193173+01:00
MLIC serial number: 26687
Comments: 
Calibration info: [2024-05-24 17:19:39]
Background compensation applied: yes
Uniformity calibration applied: yes
Snout dimension: n/a
Snout distance: n/a
FieldSize: 10 [cm]
SSD: 230 [cm]
Beam delivery mode: PencilBeamScanning
Sampling time: 10000 [ms]
Number of samples: 1
Measurement mode: SingleShot
Measurement time: (n/a)
Build-up thickness: 0 [cm]
Build-up density: 0 [g/cm^3]
Bragg Peak type: Unknown
Channel count (active): 180
Channel numbers (active): 1;2;3;4;5;6;7;8;9;10;11;12;13;14;15;16;17;18;19;20;21;22;23;24;25;26;27;28;29;30;31;32;33;34;35;36;37;38;39;40;41;42;43;44;45;46;47;48;49;50;51;52;53;54;55;56;57;58;59;60;61;62;63;64;65;66;67;68;69;70;71;72;73;74;75;76;77;78;79;80;81;82;83;84;85;86;87;88;89;90;91;92;93;94;95;96;97;98;99;100;101;102;103;104;105;106;107;108;109;110;111;112;113;114;115;116;117;118;119;120;121;122;123;124;125;126;127;128;129;130;131;132;133;134;135;136;137;138;139;140;141;142;143;144;145;146;147;148;149;150;151;152;153;154;155;156;157;158;159;160;161;162;163;164;165;166;167;168;169;170;171;172;173;174;175;176;177;178;179;180
Channel numbers (disabled): 

Curves: 1
Curve depth: [mm]
1.256;3.107;4.958;6.809;8.660;10.511;12.362;14.213;16.064;17.915;19.766;21.617;23.468;25.319;27.170;29.021;30.872;32.723;34.574;36.425;38.276;40.127;41.978;43.829;45.680;47.531;49.382;51.233;53.084;54.935;56.786;58.637;60.488;62.339;64.190;66.041;67.892;69.743;71.594;73.445;75.296;77.147;78.998;80.849;82.700;84.551;86.402;88.253;90.104;91.955;93.806;95.657;97.508;99.359;101.210;103.061;104.912;106.763;108.614;110.465;112.316;114.167;116.018;117.869;119.720;121.571;123.422;125.273;127.124;128.975;130.826;132.677;134.528;136.379;138.230;140.081;141.932;143.783;145.634;147.485;149.336;151.187;153.038;154.889;156.740;158.591;160.442;162.293;164.144;165.995;167.846;169.697;171.548;173.399;175.250;177.101;178.952;180.803;182.654;184.505;186.356;188.207;190.058;191.909;193.760;195.611;197.462;199.313;201.164;203.015;204.866;206.717;208.568;210.419;212.270;214.121;215.972;217.823;219.674;221.525;223.376;225.227;227.078;228.929;230.780;232.631;234.482;236.333;238.184;240.035;241.886;243.737;245.588;247.439;249.290;251.141;252.992;254.843;256.694;258.545;260.396;262.247;264.098;265.949;267.800;269.651;271.502;273.353;275.204;277.055;278.906;280.757;282.608;284.459;286.310;288.161;290.012;291.863;293.714;295.565;297.416;299.267;301.118;302.969;304.820;306.671;308.522;310.373;312.224;314.075;315.926;317.777;319.628;321.479;323.330;325.181;327.032;328.883;330.734;332.585
Curve gains: [counts]
1413.008;1414.638;1411.458;1419.966;1425.901;1436.947;1446.447;1460.604;1462.201;1476.375;1483.080;1488.958;1499.863;1508.409;1514.794;1522.063;1525.858;1536.641;1538.376;1547.600;1553.405;1555.360;1557.050;1576.983;1569.028;1586.432;1587.107;1581.686;1600.124;1603.751;1608.350;1613.628;1616.539;1627.415;1635.514;1630.938;1641.944;1653.205;1646.198;1666.692;1661.525;1673.555;1683.342;1689.449;1694.091;1701.067;1707.199;1705.823;1717.525;1733.121;1741.280;1739.737;1752.166;1771.707;1767.021;1777.954;1783.302;1790.771;1766.114;1823.975;1827.874;1839.744;1848.535;1862.086;1875.933;1876.698;1898.940;1916.437;1920.561;1942.355;1962.772;1983.181;1984.447;2023.291;2029.004;2054.096;2080.285;2100.314;2134.354;2143.220;2188.805;2202.936;2248.250;2271.866;2322.167;2355.473;2401.472;2447.427;2497.250;2558.965;2621.249;2691.025;2783.135;2868.436;2981.325;3108.970;3265.266;3443.798;3708.193;4008.779;4403.044;4936.269;5328.615;5401.724;4771.043;3479.841;2071.037;934.094;305.594;71.738;12.460;4.044;3.300;3.173;2.256;3.043;3.020;2.849;2.264;2.417;2.666;3.011;2.384;2.206;1.607;1.841;2.068;2.334;1.584;1.335;1.906;2.029;2.479;2.242;1.068;1.416;1.493;1.865;1.087;2.311;2.044;1.871;2.236;2.216;1.873;2.121;2.980;2.040;1.688;1.218;1.591;2.525;1.195;1.616;1.934;0.423;1.342;2.264;0.862;1.073;1.377;1.210;1.858;0.000;0.722;0.494;0.690;0.336;1.028;0.530;1.063;0.639;0.643;1.313;0.189;0.764;0.589;0.218;1.002;0.846

Samples: 1
1284.333;1618.833;1312.167;1510.500;1592.667;1311.667;913.500;2020.500;1022.333;1597.667;1579.833;1462.000;1443.333;1602.667;1705.833;1449.000;1941.333;1225.500;1510.667;1618.000;1567.667;1725.167;1251.833;1780.167;1264.167;2039.167;1639.333;1380.333;1696.500;1418.333;1761.333;1825.167;1353.833;1790.000;1578.500;1603.333;1640.667;1836.167;982.000;2057.500;1854.833;1705.333;2162.000;1563.500;1664.333;1835.500;1677.333;937.333;1754.667;1872.333;1953.167;1514.667;1884.333;2166.500;1698.333;1700.833;1941.167;1731.000;1453.333;1837.000;2118.333;1932.667;1564.000;2074.667;1899.167;1400.333;1960.167;2196.667;1920.167;1684.000;2051.000;1977.500;1627.500;2735.000;2081.167;2014.833;2168.333;2074.333;2238.167;1490.833;2420.167;2184.333;2235.167;2168.667;2320.167;2330.333;2814.000;2624.333;2658.333;2370.167;3210.333;2595.000;2782.167;2866.333;3130.500;3109.833;3427.167;3281.000;4194.500;4124.333;4464.333;6280.167;5231.500;5751.333;4422.333;1803.000;2386.167;752.833;369.000;63.333;14.167;4.500;3.500;3.500;2.000;3.333;2.500;3.500;2.167;2.333;2.833;2.667;2.167;2.333;1.833;1.500;2.167;2.333;1.667;1.333;1.833;2.000;2.667;2.167;1.000;1.500;1.667;1.500;1.000;2.500;2.167;2.667;1.833;1.333;2.833;1.667;1.667;2.333;1.667;1.000;1.833;2.333;1.000;1.667;1.833;0.333;1.500;1.833;0.833;1.167;1.333;1.167;1.667;0.000;0.667;0.500;0.667;0.500;0.833;0.667;1.000;0.667;0.667;0.833;0.167;0.833;0.667;0.167;0.833;1.000
